# Receiver Set: route rx 1pv                                                     
# Transmitter Set: tx                                                               
# Format: Path Number  Phase (Deg.)  Time (s)  Power (dBm)
     38
     1     25
    1   158.728   0.25126875E-07   -66.522
    2    76.209   0.25608090E-07   -68.321
    3    84.320   0.25617890E-07   -68.422
    4    36.362   0.25639487E-07   -68.454
    5    95.940   0.25610268E-07   -69.911
    6    58.310   0.25637032E-07   -69.915
    7   -43.598   0.11323095E-07   -71.244
    8    38.511   0.11261355E-07   -71.313
    9    25.727   0.59607572E-07   -74.194
   10   -52.546   0.59811306E-07   -74.912
   11   -65.965   0.59821886E-07   -74.950
   12  -110.566   0.27039656E-07   -75.828
   13   173.360   0.27079551E-07   -76.028
   14  -164.556   0.27072558E-07   -76.102
   15    22.446   0.41260211E-07   -77.161
   16    84.367   0.41211369E-07   -77.577
   17    51.827   0.60449068E-07   -78.933
   18  -120.825   0.14277402E-07   -78.973
   19    46.046   0.60453729E-07   -79.024
   20   -17.515   0.14215944E-07   -79.295
   21  -165.045   0.27374956E-07   -79.391
   22   -59.283   0.29359821E-07   -80.721
   23   -23.941   0.10130798E-06   -80.903
   24     3.807   0.10142803E-06   -81.350
   25     7.391   0.10142864E-06   -81.872
     2     25
    1    40.304   0.12638805E-07   -63.245
    2   -32.211   0.12695891E-07   -63.461
    3   150.215   0.28239601E-07   -67.175
    4   132.951   0.28668898E-07   -68.718
    5    97.220   0.28697018E-07   -68.854
    6   151.354   0.28671366E-07   -70.279
    7   131.068   0.28694625E-07   -70.305
    8    21.744   0.30007616E-07   -73.476
    9   -17.427   0.15330048E-07   -74.011
   10  -124.990   0.15392695E-07   -74.291
   11   128.534   0.29965161E-07   -76.013
   12    87.184   0.29984008E-07   -76.147
   13   125.014   0.30246479E-07   -76.656
   14    -1.894   0.38144428E-07   -77.180
   15   -52.101   0.15057916E-07   -78.588
   16  -113.535   0.15081303E-07   -79.520
   17   -58.940   0.15080925E-07   -80.977
   18  -142.069   0.98115230E-07   -81.070
   19  -134.695   0.20898897E-07   -81.397
   20   154.697   0.20536945E-07   -82.020
   21  -167.716   0.32026517E-07   -82.833
   22   170.879   0.32054331E-07   -82.856
   23  -108.035   0.31972103E-07   -82.906
   24  -171.982   0.32026392E-07   -82.923
   25   159.539   0.32041818E-07   -82.985
     3     25
    1   -72.249   0.14659815E-07   -59.914
    2  -135.487   0.14709642E-07   -60.133
    3   -73.611   0.18140733E-07   -61.797
    4    95.412   0.31398084E-07   -67.925
    5   137.237   0.31787387E-07   -69.496
    6   104.353   0.31809833E-07   -69.523
    7   -60.744   0.17034569E-07   -70.661
    8   150.377   0.31786481E-07   -70.783
    9   125.974   0.31806184E-07   -70.928
   10  -159.310   0.17090814E-07   -71.150
   11  -141.722   0.16789439E-07   -74.945
   12  -145.459   0.33017727E-07   -75.388
   13   -69.399   0.32954279E-07   -75.966
   14  -101.194   0.32968757E-07   -76.174
   15   162.153   0.16811581E-07   -76.214
   16    16.997   0.22178856E-07   -76.753
   17  -144.844   0.16809917E-07   -76.982
   18   -88.414   0.21838940E-07   -76.994
   19   -42.649   0.33223458E-07   -78.755
   20   -21.811   0.33213865E-07   -79.059
   21    75.191   0.22403260E-07   -80.078
   22    56.327   0.22419510E-07   -80.164
   23     2.655   0.18954896E-07   -80.329
   24   117.595   0.20368111E-07   -80.504
   25  -103.944   0.21563682E-07   -81.213
     4     25
    1    11.176   0.17097699E-07   -58.723
    2   -43.449   0.17140707E-07   -58.933
    3    79.142   0.18585318E-07   -61.180
    4    49.650   0.19177291E-07   -68.927
    5   -20.450   0.19223958E-07   -69.342
    6    51.628   0.34977365E-07   -69.729
    7   102.617   0.34950745E-07   -70.004
    8    62.895   0.34964234E-07   -70.164
    9   117.880   0.34947689E-07   -71.242
   10    85.011   0.34959729E-07   -71.453
   11     6.998   0.21319945E-07   -71.908
   12    66.350   0.34589885E-07   -72.177
   13  -123.290   0.19613450E-07   -74.089
   14   -65.153   0.18955326E-07   -74.622
   15  -128.504   0.23544935E-07   -74.626
   16     9.376   0.23859423E-07   -74.709
   17   -10.719   0.36042799E-07   -75.809
   18  -112.483   0.18973134E-07   -76.026
   19    19.984   0.36004050E-07   -76.083
   20   -66.478   0.18971534E-07   -76.495
   21    70.832   0.24084384E-07   -77.369
   22    89.094   0.36243893E-07   -78.965
   23   102.444   0.24070625E-07   -79.534
   24  -103.987   0.22260151E-07   -80.100
   25   -65.621   0.22266313E-07   -81.604
     5     25
    1   136.259   0.19799186E-07   -58.492
    2    85.702   0.19836094E-07   -58.594
    3   170.531   0.21616691E-07   -67.799
    4    94.751   0.21661204E-07   -68.249
    5   -12.132   0.38148837E-07   -70.626
    6   -23.346   0.38149885E-07   -70.773
    7    24.135   0.38828400E-07   -71.671
    8     7.538   0.38145362E-07   -72.104
    9    25.909   0.22020668E-07   -72.275
   10   -49.714   0.37806423E-07   -73.082
   11   -45.642   0.25864086E-07   -73.829
   12   140.914   0.25574199E-07   -73.829
   13    27.223   0.26084635E-07   -75.742
   14    -2.521   0.21423700E-07   -75.905
   15    38.024   0.26071676E-07   -76.154
   16    -8.572   0.21423226E-07   -76.202
   17    34.819   0.39109082E-07   -76.588
   18    90.342   0.24333390E-07   -77.016
   19    -6.278   0.21438403E-07   -77.695
   20   -60.594   0.21441766E-07   -78.040
   21   173.725   0.24309761E-07   -78.435
   22    21.466   0.24411047E-07   -78.975
   23   -28.091   0.26118100E-07   -79.814
   24  -126.430   0.27456426E-07   -80.499
   25  -152.626   0.27479002E-07   -80.517
     6     25
    1   -71.821   0.24632852E-07   -71.271
    2  -115.787   0.41358781E-07   -71.512
    3    19.109   0.41971525E-07   -72.141
    4   -69.508   0.28124827E-07   -74.185
    5   -56.654   0.28112309E-07   -74.314
    6    41.148   0.28322701E-07   -75.700
    7   -75.121   0.26724701E-07   -75.976
    8    33.691   0.42241176E-07   -76.667
    9    27.387   0.42257657E-07   -76.869
   10   -25.877   0.42273143E-07   -76.876
   11    30.432   0.28313462E-07   -76.910
   12    -5.744   0.42261082E-07   -76.998
   13    18.899   0.27742429E-07   -77.345
   14    28.983   0.28324587E-07   -77.525
   15    13.163   0.27741775E-07   -77.940
   16    75.152   0.28300462E-07   -77.982
   17  -125.590   0.26789863E-07   -78.158
   18  -137.572   0.26806255E-07   -78.179
   19   137.946   0.42454388E-07   -78.877
   20   126.524   0.42456101E-07   -78.878
   21     9.242   0.28332243E-07   -79.650
   22    16.958   0.29593510E-07   -80.168
   23   -16.895   0.29617633E-07   -80.514
   24   106.501   0.43739519E-07   -82.589
   25    27.817   0.29604607E-07   -83.766
     7     25
    1  -134.703   0.25663454E-07   -59.252
    2  -166.346   0.25688507E-07   -59.297
    3    27.613   0.27103686E-07   -66.796
    4    -1.559   0.27402027E-07   -70.676
    5   123.952   0.44582261E-07   -72.088
    6   115.256   0.44585171E-07   -72.178
    7   132.044   0.44590397E-07   -72.880
    8   141.691   0.44591385E-07   -73.376
    9    11.713   0.30602415E-07   -74.583
   10    14.975   0.44292484E-07   -74.731
   11    32.617   0.30578914E-07   -74.899
   12   -70.969   0.29317148E-07   -76.718
   13   172.387   0.30744225E-07   -76.898
   14  -142.621   0.29374188E-07   -77.039
   15    -8.739   0.45406065E-07   -77.105
   16   -35.656   0.45419952E-07   -77.395
   17   -38.509   0.45429946E-07   -77.474
   18    97.735   0.30788648E-07   -78.022
   19   101.514   0.30791632E-07   -79.130
   20   123.943   0.45597218E-07   -79.317
   21  -117.450   0.29374808E-07   -79.560
   22  -115.601   0.31959836E-07   -80.719
   23  -101.828   0.31937411E-07   -80.736
   24    92.570   0.30799729E-07   -80.760
   25  -165.546   0.31979589E-07   -81.609
     8     25
    1   -24.441   0.47827555E-07   -72.859
    2   -11.437   0.47824500E-07   -73.942
    3  -155.169   0.47554952E-07   -75.533
    4    41.093   0.32963644E-07   -76.302
    5   -71.125   0.33192446E-07   -76.529
    6    48.147   0.47827200E-07   -77.473
    7   -84.554   0.48593449E-07   -77.522
    8    64.971   0.33366049E-07   -77.840
    9    83.143   0.33351192E-07   -78.061
   10   138.425   0.49953357E-07   -80.184
   11   100.308   0.33342047E-07   -80.195
   12   -60.587   0.34444756E-07   -81.691
   13  -146.605   0.49921329E-07   -81.969
   14  -114.750   0.49892204E-07   -82.621
   15   -66.006   0.34464801E-07   -84.195
   16   -84.349   0.49888122E-07   -84.671
   17   -40.666   0.34450625E-07   -84.940
   18   -12.173   0.10829729E-06   -85.205
   19   -65.067   0.34461625E-07   -85.359
   20   -19.648   0.34126227E-07   -86.224
   21   -20.174   0.34126508E-07   -86.243
   22   -28.594   0.34685197E-07   -86.475
   23   160.981   0.24215367E-06   -86.568
   24   161.952   0.24215277E-06   -86.646
   25   -35.568   0.34455255E-07   -86.846
     9     25
    1  -131.836   0.31847311E-07   -60.604
    2  -157.410   0.31867543E-07   -60.646
    3   -25.429   0.33050444E-07   -67.498
    4   -27.871   0.33052419E-07   -67.536
    5   175.189   0.51082296E-07   -73.581
    6   152.129   0.51088961E-07   -73.729
    7  -159.746   0.51081152E-07   -74.500
    8   -96.265   0.34943451E-07   -74.802
    9    27.652   0.50826745E-07   -76.242
   10   -17.581   0.34905497E-07   -76.995
   11  -176.983   0.51801823E-07   -77.966
   12  -105.834   0.51080416E-07   -78.106
   13    55.152   0.35919225E-07   -78.187
   14   134.365   0.35711121E-07   -78.259
   15  -151.293   0.36075992E-07   -79.640
   16  -143.222   0.36069192E-07   -79.851
   17  -125.387   0.53019878E-07   -80.438
   18  -121.055   0.36057958E-07   -81.726
   19   -95.958   0.53016322E-07   -82.586
   20  -125.748   0.53035940E-07   -83.010
   21   177.367   0.37082298E-07   -83.267
   22  -141.848   0.53067659E-07   -84.415
   23   -88.121   0.53026010E-07   -85.178
   24   154.371   0.11159369E-06   -85.451
   25   162.081   0.37103444E-07   -86.135
    10     25
    1  -147.083   0.34991313E-07   -61.174
    2  -134.275   0.34988485E-07   -61.253
    3  -166.367   0.35010114E-07   -61.340
    4   154.571   0.36050228E-07   -67.370
    5   113.523   0.36071881E-07   -67.849
    6   125.731   0.36073374E-07   -67.874
    7    16.688   0.54347034E-07   -74.089
    8     7.880   0.54346302E-07   -74.215
    9   -76.531   0.37788936E-07   -74.258
   10  -103.769   0.37799417E-07   -74.340
   11   -57.685   0.37793669E-07   -76.199
   12   -14.863   0.37748851E-07   -76.763
   13  -154.383   0.54106156E-07   -76.909
   14    69.588   0.55022461E-07   -78.108
   15    41.820   0.37734235E-07   -78.707
   16    92.814   0.54343420E-07   -78.769
   17  -152.408   0.39413820E-07   -80.072
   18    56.513   0.38745892E-07   -80.386
   19   113.916   0.38551669E-07   -80.868
   20   161.120   0.40005499E-07   -81.521
   21  -137.230   0.38889066E-07   -82.144
   22  -130.422   0.38883314E-07   -82.334
   23  -131.946   0.56172031E-07   -82.998
   24  -143.956   0.56181559E-07   -83.222
   25   175.102   0.40017365E-07   -84.116
    11     25
    1   155.312   0.38183515E-07   -61.910
    2   146.695   0.38175706E-07   -61.937
    3   128.019   0.38194166E-07   -62.007
    4  -169.600   0.39149594E-07   -67.667
    5   139.102   0.39175440E-07   -68.210
    6   -85.980   0.39375028E-07   -70.069
    7   110.945   0.40760696E-07   -74.128
    8  -147.160   0.57613761E-07   -75.409
    9   163.799   0.40745281E-07   -76.361
   10  -163.654   0.40711988E-07   -76.535
   11    10.094   0.57392402E-07   -77.694
   12   -59.314   0.58259634E-07   -78.585
   13  -102.512   0.57619037E-07   -78.585
   14  -108.188   0.40697817E-07   -78.632
   15   -85.493   0.57615839E-07   -79.480
   16  -179.452   0.42276582E-07   -79.901
   17   143.362   0.59366254E-07   -83.218
   18  -140.935   0.42831921E-07   -83.226
   19  -113.692   0.42810317E-07   -83.338
   20   164.890   0.59353130E-07   -83.387
   21   -38.609   0.41646306E-07   -83.697
   22     4.724   0.41465981E-07   -83.973
   23  -144.335   0.59342455E-07   -84.580
   24   168.776   0.59371448E-07   -84.624
   25  -148.462   0.59342263E-07   -85.113
    12     25
    1    37.541   0.41386542E-07   -62.571
    2    21.128   0.41403247E-07   -62.694
    3   173.737   0.42286597E-07   -67.950
    4   129.404   0.42310536E-07   -68.553
    5   138.102   0.42311424E-07   -68.573
    6   -75.367   0.42491020E-07   -70.308
    7  -104.062   0.43781114E-07   -74.183
    8    29.492   0.60893832E-07   -75.831
    9   -41.008   0.43744802E-07   -76.078
   10   -64.172   0.43771099E-07   -76.092
   11   -31.401   0.43737799E-07   -76.621
   12   172.643   0.60683838E-07   -78.213
   13    17.728   0.43723848E-07   -78.557
   14   166.381   0.61500913E-07   -78.981
   15    81.085   0.60897882E-07   -79.004
   16    88.286   0.45194788E-07   -79.721
   17    91.997   0.60895232E-07   -79.921
   18  -166.177   0.45697540E-07   -83.108
   19   153.046   0.62501428E-07   -83.470
   20   102.343   0.62541652E-07   -83.684
   21   179.970   0.62497563E-07   -85.246
   22   140.595   0.62532990E-07   -85.326
   23   140.361   0.62529246E-07   -85.437
   24  -163.569   0.45712831E-07   -85.626
   25   -68.141   0.47467189E-07   -85.920
    13     25
    1   -90.742   0.44616051E-07   -63.296
    2  -100.932   0.44631747E-07   -63.389
    3  -124.037   0.44634849E-07   -63.565
    4   131.205   0.45451571E-07   -68.377
    5    94.718   0.45469168E-07   -68.853
    6   -31.567   0.46847315E-07   -74.284
    7    20.642   0.46834465E-07   -76.083
    8  -149.046   0.64174579E-07   -76.473
    9    36.531   0.46822404E-07   -76.574
   10    37.120   0.46810147E-07   -76.729
   11    93.377   0.46793453E-07   -78.376
   12   -25.353   0.63980004E-07   -78.866
   13    18.338   0.64757273E-07   -79.405
   14  -103.304   0.64183318E-07   -79.622
   15   -83.614   0.48176076E-07   -79.738
   16   -93.400   0.64181009E-07   -80.415
   17   -77.087   0.45362693E-07   -80.853
   18   -83.922   0.45367610E-07   -81.152
   19    31.983   0.48682896E-07   -82.666
   20    64.064   0.48641997E-07   -82.872
   21    15.750   0.65753277E-07   -83.824
   22    46.701   0.65728685E-07   -83.843
   23    52.382   0.65737204E-07   -85.406
   24   -87.931   0.50328385E-07   -85.419
   25   -79.185   0.50329263E-07   -85.464
    14     25
    1   119.070   0.47878039E-07   -63.895
    2   128.472   0.47859217E-07   -64.066
    3   114.020   0.47874487E-07   -64.109
    4    53.573   0.48640388E-07   -68.793
    5    26.645   0.48658080E-07   -69.172
    6  -166.941   0.48822901E-07   -70.604
    7   -37.440   0.49991126E-07   -73.410
    8    25.553   0.49937256E-07   -74.201
    9    52.122   0.49936062E-07   -76.130
   10    77.827   0.49908284E-07   -76.753
   11    23.353   0.67466324E-07   -76.890
   12    72.038   0.49928065E-07   -78.639
   13   125.907   0.49893892E-07   -78.639
   14   133.501   0.67282500E-07   -79.288
   15    77.394   0.51182905E-07   -79.701
   16  -146.710   0.68031028E-07   -79.706
   17    68.176   0.67475867E-07   -80.009
   18  -161.880   0.48560043E-07   -80.729
   19  -146.997   0.48552806E-07   -80.785
   20    77.427   0.67474005E-07   -80.834
   21  -141.484   0.48558626E-07   -82.029
   22  -121.660   0.51638516E-07   -82.490
   23  -132.089   0.51646847E-07   -82.633
   24  -142.316   0.53199578E-07   -82.986
   25  -121.983   0.53208726E-07   -85.336
    15     25
    1   -23.562   0.51115084E-07   -64.697
    2   -40.693   0.51128616E-07   -64.737
    3   -34.890   0.51116249E-07   -64.824
    4    84.791   0.52024863E-07   -68.961
    5   -35.344   0.51845976E-07   -69.236
    6   -75.376   0.51865996E-07   -69.632
    7   115.594   0.52015739E-07   -70.993
    8     7.234   0.53067236E-07   -71.911
    9    43.937   0.53061701E-07   -74.149
   10    25.085   0.53072654E-07   -74.471
   11    17.977   0.53082257E-07   -74.518
   12    91.008   0.53031982E-07   -76.584
   13    59.263   0.53065285E-07   -76.626
   14   124.004   0.53025072E-07   -78.754
   15   110.256   0.53040907E-07   -79.123
   16    91.414   0.51770979E-07   -80.271
   17   110.267   0.51764822E-07   -80.566
   18    97.721   0.51771980E-07   -80.891
   19    -4.354   0.54676068E-07   -82.265
   20   121.016   0.56146813E-07   -85.145
   21    14.064   0.54680516E-07   -85.204
   22    72.009   0.97477077E-07   -86.974
   23   177.234   0.53686762E-07   -87.231
   24   101.650   0.56186511E-07   -87.389
   25    93.081   0.97602374E-07   -87.451
    16     25
    1   -80.655   0.54154125E-07   -64.387
    2   168.198   0.54379704E-07   -65.265
    3   152.166   0.54392363E-07   -65.305
    4   172.024   0.54384518E-07   -65.314
    5  -174.411   0.54380102E-07   -66.180
    6   166.012   0.54391659E-07   -66.230
    7  -159.023   0.55074757E-07   -69.365
    8     4.665   0.55231315E-07   -69.449
    9  -176.612   0.55081181E-07   -70.033
   10    14.057   0.55227595E-07   -71.315
   11     3.780   0.56220752E-07   -74.657
   12    36.551   0.56213644E-07   -76.650
   13    71.314   0.56186213E-07   -76.787
   14     0.276   0.10797176E-06   -77.917
   15    16.041   0.10796779E-06   -78.083
   16    93.762   0.56182525E-07   -78.615
   17  -128.257   0.57329348E-07   -79.848
   18   -10.796   0.54995404E-07   -80.465
   19    -7.555   0.54998392E-07   -81.348
   20    97.609   0.57730006E-07   -82.414
   21   -74.017   0.10889106E-06   -82.997
   22   -66.064   0.10889327E-06   -83.154
   23   107.131   0.57740539E-07   -85.049
   24   -55.969   0.59136546E-07   -85.056
   25   -83.283   0.56877212E-07   -86.056
    17     25
    1    -6.219   0.57653299E-07   -66.027
    2   -21.658   0.57665485E-07   -66.067
    3    32.567   0.58320943E-07   -68.723
    4    84.169   0.58302572E-07   -70.152
    5    52.339   0.58319870E-07   -70.450
    6   -96.578   0.58450304E-07   -71.526
    7   -39.131   0.59393660E-07   -74.764
    8    84.319   0.10979650E-06   -76.009
    9    28.879   0.59353802E-07   -76.573
   10    -8.714   0.59387837E-07   -76.634
   11     0.901   0.59368478E-07   -77.150
   12    50.554   0.59355056E-07   -78.844
   13  -101.090   0.60442005E-07   -79.893
   14   151.834   0.60821449E-07   -82.283
   15    49.026   0.10565055E-06   -82.807
   16    86.003   0.10562973E-06   -82.930
   17    74.811   0.62707386E-07   -83.446
   18  -105.356   0.59882716E-07   -84.563
   19    85.681   0.62158719E-07   -84.812
   20   157.408   0.60834523E-07   -84.897
   21   166.797   0.60089953E-07   -84.969
   22   -91.634   0.11020627E-06   -84.989
   23   163.135   0.60096887E-07   -85.345
   24   150.934   0.62674609E-07   -85.446
   25   -77.764   0.60011530E-07   -85.767
    18     25
    1  -113.565   0.60731814E-07   -65.690
    2   166.312   0.60933147E-07   -66.682
    3   152.083   0.60944373E-07   -66.722
    4   177.796   0.60933303E-07   -67.280
    5   166.263   0.60942845E-07   -67.448
    6   -59.751   0.61551233E-07   -70.234
    7   -81.776   0.61569096E-07   -70.769
    8   -82.557   0.61561771E-07   -70.953
    9   135.848   0.61686663E-07   -72.002
   10   -85.742   0.62568162E-07   -72.571
   11  -110.718   0.62581513E-07   -75.082
   12   -91.434   0.62562108E-07   -75.203
   13   -58.288   0.10648111E-06   -75.747
   14   -77.517   0.62576703E-07   -76.692
   15   -41.680   0.62544451E-07   -76.927
   16   120.266   0.63968017E-07   -77.335
   17   -73.632   0.62570315E-07   -77.371
   18    56.277   0.10179053E-06   -79.086
   19   108.013   0.10706883E-06   -79.539
   20    65.467   0.10178995E-06   -80.109
   21   170.334   0.63941599E-07   -82.592
   22  -156.462   0.10239361E-06   -82.871
   23  -152.014   0.63046862E-07   -83.020
   24  -122.751   0.63166290E-07   -83.074
   25   131.796   0.63245011E-07   -83.475
    19     25
    1    43.449   0.64027972E-07   -66.496
    2   -19.571   0.64219542E-07   -67.271
    3   -33.922   0.64230868E-07   -67.311
    4   102.121   0.64835739E-07   -67.984
    5   -12.578   0.64219257E-07   -68.002
    6   -26.822   0.64230562E-07   -68.004
    7   153.342   0.64802883E-07   -71.035
    8   127.406   0.64823702E-07   -71.358
    9    -5.369   0.64933509E-07   -72.199
   10  -141.300   0.65751095E-07   -73.016
   11   163.433   0.65788420E-07   -75.302
   12  -179.644   0.65774984E-07   -75.432
   13   150.468   0.10317257E-06   -75.481
   14  -166.133   0.65781748E-07   -77.181
   15    79.461   0.67120560E-07   -77.200
   16  -142.697   0.65763324E-07   -77.333
   17   147.849   0.67084876E-07   -77.781
   18    78.604   0.67148747E-07   -79.250
   19   -53.596   0.10376852E-06   -79.272
   20   140.274   0.66228019E-07   -81.767
   21    75.264   0.66421279E-07   -82.477
   22    81.706   0.66416106E-07   -82.513
   23  -128.220   0.67009815E-07   -83.187
   24   -37.269   0.10359170E-06   -84.459
   25   -95.134   0.66977741E-07   -84.541
    20     25
    1  -155.616   0.67328813E-07   -66.915
    2   150.366   0.67513241E-07   -67.688
    3   139.607   0.67521782E-07   -67.689
    4   -40.050   0.68091516E-07   -68.329
    5   160.987   0.67510079E-07   -68.417
    6   148.197   0.67520233E-07   -68.419
    7    -3.660   0.68070172E-07   -71.211
    8   107.347   0.68982281E-07   -73.300
    9   -14.656   0.99875052E-07   -75.212
   10    98.667   0.70248426E-07   -77.408
   11    94.528   0.70270133E-07   -77.899
   12   124.223   0.10048453E-06   -79.003
   13   134.105   0.10048640E-06   -80.912
   14    59.608   0.69423379E-07   -81.114
   15   103.297   0.69531382E-07   -81.162
   16     4.873   0.69604667E-07   -81.441
   17     5.741   0.69607857E-07   -81.787
   18  -141.697   0.70156631E-07   -83.550
   19  -131.923   0.70138505E-07   -83.563
   20  -130.652   0.70142818E-07   -84.681
   21  -120.963   0.70138952E-07   -84.814
   22    66.182   0.70259290E-07   -85.294
   23     8.466   0.71023742E-07   -85.347
   24  -122.519   0.70144047E-07   -85.389
   25  -128.490   0.70156517E-07   -85.962
    21     25
    1    -2.091   0.70635537E-07   -67.320
    2   161.814   0.71359878E-07   -68.726
    3   -35.852   0.70809158E-07   -68.819
    4   -47.649   0.70818523E-07   -68.820
    5   178.395   0.71354165E-07   -71.496
    6   155.834   0.96596885E-07   -74.947
    7   -96.779   0.97231364E-07   -78.746
    8    38.017   0.73455155E-07   -79.653
    9   -46.205   0.97200939E-07   -80.645
   10   -34.061   0.72632972E-07   -80.777
   11   -78.260   0.72809840E-07   -81.414
   12   -64.547   0.72804092E-07   -82.320
   13   173.629   0.73317061E-07   -83.243
   14  -174.018   0.73317516E-07   -83.321
   15   -13.508   0.91014670E-07   -83.383
   16    25.717   0.90458101E-07   -83.992
   17    35.842   0.90592074E-07   -84.461
   18    25.648   0.90600089E-07   -84.503
   19  -174.745   0.73320678E-07   -84.935
   20    38.397   0.90593780E-07   -85.032
   21    28.153   0.90601951E-07   -85.048
   22  -179.513   0.73328273E-07   -85.092
   23   174.921   0.73332664E-07   -85.170
   24     3.032   0.74157640E-07   -86.133
   25    -6.630   0.91722228E-07   -86.479
    22     25
    1    90.643   0.93949474E-07   -80.397
    2   148.356   0.94308739E-07   -81.470
    3    99.264   0.76529062E-07   -83.526
    4   157.127   0.94307815E-07   -83.670
    5   169.724   0.93772378E-07   -84.295
    6  -174.369   0.93901768E-07   -84.763
    7   174.887   0.93910216E-07   -84.805
    8  -175.107   0.93905847E-07   -85.249
    9  -179.881   0.93909911E-07   -85.349
   10  -115.803   0.94373732E-07   -87.638
   11   -52.626   0.95286047E-07   -87.698
   12   -43.182   0.95420603E-07   -88.170
   13   -86.245   0.95637461E-07   -88.210
   14     4.102   0.95810513E-07   -88.673
   15   148.047   0.15478105E-06   -88.678
   16  -127.229   0.15485895E-06   -88.734
   17   -36.338   0.95422436E-07   -88.740
   18   -76.430   0.73937507E-07   -88.830
   19   -34.342   0.95417704E-07   -88.892
   20    68.334   0.96801436E-07   -88.927
   21    79.098   0.15497791E-06   -89.086
   22  -108.039   0.74102886E-07   -89.501
   23  -120.768   0.74112741E-07   -89.542
   24   -42.203   0.95890286E-07   -89.761
   25    98.859   0.15510371E-06   -89.880
    23     25
    1   -52.461   0.78937973E-07   -75.599
    2   -72.597   0.79100296E-07   -76.900
    3  -134.916   0.79572160E-07   -76.979
    4   -62.488   0.79092487E-07   -76.987
    5  -146.131   0.79580140E-07   -77.791
    6  -116.679   0.79564686E-07   -79.245
    7    72.449   0.79089126E-07   -79.248
    8    48.414   0.79250043E-07   -79.847
    9    63.342   0.79242902E-07   -80.631
   10   -18.969   0.79729517E-07   -81.399
   11   -41.695   0.97602431E-07   -81.749
   12   156.376   0.80342303E-07   -82.571
   13    11.868   0.79712912E-07   -82.974
   14   151.773   0.80913424E-07   -83.428
   15   156.127   0.80913928E-07   -83.457
   16   -48.623   0.97609572E-07   -84.065
   17   -49.689   0.97089377E-07   -84.589
   18   -29.030   0.97214993E-07   -85.057
   19   -40.248   0.97223811E-07   -85.099
   20   -26.615   0.97216571E-07   -85.541
   21   -32.851   0.97221793E-07   -85.643
   22   -78.058   0.80493010E-07   -86.225
   23   -63.969   0.81053244E-07   -87.239
   24   144.288   0.98554409E-07   -87.793
   25   166.351   0.98678960E-07   -88.259
    24     25
    1  -178.671   0.82177003E-07   -75.718
    2   179.120   0.82325101E-07   -77.021
    3   169.519   0.82332726E-07   -77.021
    4    90.316   0.82805073E-07   -77.578
    5   131.685   0.82784226E-07   -77.892
    6   131.657   0.82784013E-07   -78.010
    7   138.865   0.82782385E-07   -79.061
    8   -34.677   0.82317001E-07   -79.493
    9   -54.730   0.82474763E-07   -80.093
   10    52.545   0.83549054E-07   -80.330
   11   -41.156   0.82468695E-07   -80.878
   12   -84.249   0.82924181E-07   -81.624
   13   115.400   0.10090632E-06   -82.027
   14    96.054   0.83529059E-07   -82.460
   15   -73.511   0.82923528E-07   -83.224
   16   132.795   0.84071338E-07   -83.359
   17   120.005   0.84077541E-07   -83.526
   18   116.127   0.10091168E-06   -84.122
   19    87.662   0.10040894E-06   -84.876
   20    17.862   0.10197817E-06   -85.489
   21   107.877   0.10053068E-06   -85.524
   22    98.000   0.10053844E-06   -85.566
   23   117.321   0.10053090E-06   -85.826
   24   110.220   0.10053682E-06   -85.928
   25  -128.538   0.83675928E-07   -86.426
    25     25
    1    35.131   0.85435886E-07   -75.994
    2    30.987   0.85577391E-07   -76.977
    3    39.172   0.85578826E-07   -77.211
    4   -24.177   0.86030632E-07   -77.519
    5    12.406   0.86009770E-07   -77.810
    6    14.409   0.86012101E-07   -77.975
    7   -14.471   0.86042562E-07   -78.883
    8    25.559   0.86010992E-07   -79.109
    9    24.782   0.86015788E-07   -79.327
   10  -178.160   0.85573731E-07   -79.775
   11   178.564   0.85718241E-07   -80.337
   12     6.422   0.86724469E-07   -80.450
   13   175.799   0.85724871E-07   -81.076
   14  -144.072   0.93137423E-07   -81.656
   15     6.780   0.86734758E-07   -82.476
   16    76.159   0.87251138E-07   -83.235
   17    63.019   0.87257490E-07   -83.307
   18  -142.417   0.10373010E-06   -85.369
   19  -110.995   0.10384724E-06   -85.800
   20  -121.327   0.10385536E-06   -85.842
   21  -134.644   0.10523777E-06   -85.974
   22  -102.377   0.10384813E-06   -86.103
   23  -115.342   0.10385416E-06   -86.334
   24   -31.789   0.10421080E-06   -87.007
   25  -145.554   0.87403727E-07   -87.165
    26     25
    1  -117.397   0.88683734E-07   -75.803
    2  -106.332   0.88821103E-07   -77.023
    3  -114.983   0.88827967E-07   -77.023
    4  -112.405   0.89247585E-07   -77.943
    5  -121.101   0.89258450E-07   -78.162
    6    21.488   0.88820471E-07   -78.767
    7  -112.732   0.89255273E-07   -78.924
    8  -100.812   0.89245916E-07   -79.037
    9   -98.478   0.89244175E-07   -79.118
   10    28.431   0.88956931E-07   -79.290
   11    21.301   0.88966978E-07   -80.071
   12   -55.147   0.89730193E-07   -81.106
   13   -77.506   0.89936300E-07   -81.835
   14    25.978   0.89388394E-07   -81.869
   15   -96.125   0.89951115E-07   -82.257
   16     6.510   0.90441112E-07   -83.014
   17    -8.028   0.90448616E-07   -83.083
   18   130.275   0.90578375E-07   -83.907
   19    -8.155   0.10705212E-06   -85.638
   20    27.304   0.10716605E-06   -86.069
   21    16.569   0.10717449E-06   -86.111
   22    56.157   0.10851510E-06   -86.124
   23    29.631   0.10716741E-06   -86.501
   24    24.146   0.10717203E-06   -86.602
   25   118.027   0.10752061E-06   -87.199
    27     25
    1    99.381   0.90506305E-07   -71.464
    2   109.156   0.90640569E-07   -71.960
    3   112.052   0.90642025E-07   -72.532
    4   101.542   0.90650360E-07   -72.533
    5   114.492   0.91062326E-07   -73.507
    6    52.461   0.91396480E-07   -73.991
    7   118.385   0.91066518E-07   -74.641
    8    81.666   0.91946198E-07   -75.848
    9  -111.317   0.92235886E-07   -76.885
   10    99.400   0.92078082E-07   -76.984
   11    89.536   0.92086111E-07   -77.070
   12   112.246   0.92489870E-07   -77.912
   13    95.715   0.92501971E-07   -78.759
   14   110.286   0.92498617E-07   -78.850
   15   123.293   0.92488413E-07   -78.966
   16  -114.128   0.92070962E-07   -79.007
   17   125.946   0.92486417E-07   -79.051
   18   127.919   0.92488882E-07   -79.095
   19  -101.415   0.92202903E-07   -79.493
   20  -112.688   0.92216176E-07   -80.312
   21  -163.471   0.92959432E-07   -81.073
   22  -141.922   0.92941924E-07   -81.330
   23  -177.958   0.93154839E-07   -82.056
   24   -79.163   0.92614698E-07   -82.091
   25   130.946   0.93333000E-07   -82.819
    28     25
    1  -116.683   0.93820645E-07   -71.767
    2  -104.913   0.93953950E-07   -71.823
    3  -101.199   0.93950369E-07   -72.262
    4  -114.987   0.93961184E-07   -72.340
    5   -96.896   0.93950710E-07   -72.833
    6  -106.403   0.93958256E-07   -72.834
    7   -74.589   0.94355251E-07   -73.793
    8  -120.696   0.94676757E-07   -74.279
    9   -62.938   0.94353283E-07   -74.921
   10   -80.352   0.95213501E-07   -76.030
   11   135.771   0.95892652E-07   -77.070
   12   -57.654   0.95341441E-07   -77.167
   13   -65.818   0.95347922E-07   -77.167
   14   -63.543   0.95755837E-07   -77.645
   15   -31.760   0.95738805E-07   -77.888
   16   128.858   0.95485561E-07   -78.799
   17    84.800   0.95333874E-07   -78.886
   18   -22.444   0.95738486E-07   -78.900
   19   -18.726   0.95735658E-07   -78.992
   20   -14.028   0.95736112E-07   -79.145
   21   -18.591   0.95743985E-07   -79.308
   22   102.928   0.95461523E-07   -79.372
   23    86.484   0.95478903E-07   -80.193
   24   140.457   0.95858034E-07   -80.717
   25    93.113   0.96184365E-07   -81.319
    29     25
    1    23.592   0.97137885E-07   -72.061
    2    43.333   0.97264866E-07   -72.115
    3    44.021   0.97263687E-07   -72.556
    4    49.417   0.97263161E-07   -73.126
    5    40.677   0.97270096E-07   -73.127
    6    93.990   0.97650293E-07   -73.925
    7    84.250   0.97657761E-07   -74.077
    8    57.200   0.97964275E-07   -74.488
    9   106.816   0.98485152E-07   -75.954
   10   -37.337   0.98749574E-07   -76.877
   11   135.180   0.98608375E-07   -77.003
   12   126.413   0.98615558E-07   -77.092
   13     1.568   0.99137836E-07   -77.123
   14   163.964   0.98310416E-07   -77.843
   15  -175.902   0.98992011E-07   -77.865
   16   176.561   0.99002044E-07   -78.136
   17   -63.056   0.99477461E-07   -78.321
   18   -61.563   0.99760932E-07   -78.892
   19  -172.752   0.98992324E-07   -78.930
   20  -164.362   0.98989794E-07   -78.948
   21   -78.470   0.98602371E-07   -78.988
   22  -165.447   0.98994960E-07   -79.239
   23  -170.023   0.99002776E-07   -79.403
   24   -56.812   0.98727213E-07   -79.474
   25    -2.041   0.99106039E-07   -80.631
    30     25
    1   160.905   0.10045748E-06   -72.348
    2  -172.902   0.10057934E-06   -72.399
    3  -178.987   0.10057931E-06   -73.018
    4  -168.083   0.10057864E-06   -73.412
    5  -176.229   0.10058510E-06   -73.412
    6  -108.664   0.10095399E-06   -74.203
    7  -120.792   0.10125676E-06   -75.974
    8   -66.434   0.10176137E-06   -76.194
    9   -58.285   0.10209226E-06   -77.040
   10   170.409   0.10201327E-06   -77.147
   11   -33.207   0.10188074E-06   -77.245
   12  -151.970   0.10239417E-06   -77.305
   13   -43.660   0.10188926E-06   -77.334
   14    26.483   0.10225170E-06   -77.970
   15    21.422   0.10156640E-06   -78.085
   16  -165.363   0.10270173E-06   -78.431
   17    28.169   0.10225695E-06   -78.898
   18    40.577   0.10225159E-06   -79.168
   19   107.396   0.10188343E-06   -79.241
   20   135.624   0.10200312E-06   -79.689
   21   166.725   0.10300687E-06   -80.374
   22  -159.348   0.10237401E-06   -80.702
   23  -150.759   0.10236693E-06   -80.872
   24    91.396   0.10269333E-06   -80.888
   25  -155.053   0.10299130E-06   -80.980
    31     25
    1   -68.925   0.10377845E-06   -72.840
    2   -37.159   0.10389589E-06   -72.892
    3   -37.961   0.10389596E-06   -73.295
    4   -28.698   0.10389659E-06   -73.689
    5   -36.378   0.10390268E-06   -73.690
    6    41.993   0.10425897E-06   -74.541
    7   110.098   0.10504129E-06   -76.253
    8    41.556   0.10455219E-06   -76.465
    9   163.970   0.10534444E-06   -77.254
   10   147.293   0.10515751E-06   -77.304
   11    56.245   0.10565326E-06   -77.376
   12   144.396   0.10516411E-06   -77.425
   13     2.576   0.10528523E-06   -77.521
   14    48.887   0.10537524E-06   -77.825
   15   158.855   0.10535490E-06   -78.128
   16  -133.642   0.10552164E-06   -78.208
   17  -156.394   0.10485039E-06   -78.343
   18   -21.817   0.10601255E-06   -78.521
   19    58.353   0.10595275E-06   -78.679
   20  -122.796   0.10551533E-06   -79.008
   21   174.703   0.10555879E-06   -79.736
   22    54.733   0.10623886E-06   -80.476
   23    72.410   0.10624365E-06   -80.873
   24   -35.770   0.10593710E-06   -81.091
   25    29.106   0.10611240E-06   -81.982
    32     25
    1    65.299   0.10710050E-06   -73.110
    2   101.823   0.10721416E-06   -73.160
    3   100.250   0.10721484E-06   -73.563
    4   108.110   0.10721658E-06   -73.959
    5   100.800   0.10722238E-06   -73.959
    6  -168.634   0.10756912E-06   -74.727
    7  -113.185   0.10828111E-06   -76.061
    8   -71.676   0.10832411E-06   -76.300
    9  -156.188   0.10785178E-06   -76.494
   10   -32.078   0.10843842E-06   -77.352
   11   -38.014   0.10844313E-06   -77.352
   12  -102.146   0.10891761E-06   -77.380
   13  -175.049   0.10856965E-06   -77.436
   14    -5.071   0.10861670E-06   -77.599
   15  -139.874   0.10865934E-06   -78.025
   16  -109.798   0.10864404E-06   -78.041
   17    -9.857   0.10863153E-06   -78.227
   18     6.258   0.10814987E-06   -78.603
   19   100.613   0.10843633E-06   -78.652
   20   -88.597   0.10920840E-06   -78.732
   21   136.051   0.10855030E-06   -79.099
   22  -153.638   0.10856256E-06   -79.228
   23    75.235   0.10878673E-06   -79.241
   24  -142.363   0.10891230E-06   -80.192
   25  -118.595   0.10889316E-06   -80.345
    33     25
    1  -160.168   0.11042658E-06   -73.159
    2  -121.787   0.11053448E-06   -73.422
    3  -123.887   0.11053559E-06   -73.825
    4   -18.604   0.11087862E-06   -74.985
    5    62.673   0.11156522E-06   -76.480
    6   102.240   0.11161042E-06   -76.542
    7   136.349   0.11172164E-06   -76.550
    8     3.410   0.11115369E-06   -76.752
    9    86.453   0.11218799E-06   -77.535
   10     7.649   0.11185342E-06   -77.575
   11   143.258   0.11172361E-06   -77.594
   12   138.205   0.11172762E-06   -77.595
   13   179.478   0.11189399E-06   -77.870
   14    68.827   0.11192209E-06   -78.159
   15    63.458   0.11192654E-06   -78.238
   16  -172.758   0.11189878E-06   -78.646
   17   -68.430   0.11171335E-06   -78.869
   18   123.990   0.11246826E-06   -78.973
   19   -37.952   0.11183145E-06   -79.202
   20   -31.715   0.11182630E-06   -79.317
   21    26.459   0.11184819E-06   -79.482
   22    79.341   0.11216491E-06   -80.393
   23   115.569   0.11276279E-06   -80.535
   24    85.170   0.11216002E-06   -80.562
   25   121.978   0.11248137E-06   -81.006
    34     25
    1   -31.679   0.11374889E-06   -73.627
    2    11.086   0.11385717E-06   -74.001
    3   119.868   0.11419743E-06   -75.160
    4   -87.743   0.11489970E-06   -76.721
    5   -41.956   0.11500601E-06   -76.770
    6  -126.001   0.11485288E-06   -76.823
    7   155.528   0.11446153E-06   -77.003
    8   -77.214   0.11546074E-06   -77.756
    9   -50.441   0.11501584E-06   -77.775
   10   -45.570   0.11501633E-06   -77.822
   11  -169.159   0.11513661E-06   -77.825
   12     7.013   0.11517373E-06   -78.091
   13  -103.782   0.11520194E-06   -78.374
   14  -112.774   0.11520926E-06   -78.458
   15    13.098   0.11517491E-06   -78.990
   16   106.129   0.11499952E-06   -79.055
   17   144.158   0.11511163E-06   -79.389
   18   143.416   0.11511202E-06   -79.504
   19    -8.798   0.11539778E-06   -79.961
   20   -83.988   0.11543353E-06   -80.578
   21   -82.646   0.11543233E-06   -80.670
   22   -75.085   0.11571164E-06   -80.914
   23    38.165   0.11635667E-06   -82.321
   24   156.570   0.11627093E-06   -82.366
   25   174.238   0.11626132E-06   -82.405
    35     25
    1    78.929   0.11819156E-06   -76.833
    2   126.459   0.11830092E-06   -76.993
    3    41.535   0.11814365E-06   -77.403
    4   104.265   0.11873649E-06   -77.651
    5   116.662   0.11830736E-06   -77.887
    6    62.691   0.11848953E-06   -78.311
    7    67.850   0.11849429E-06   -78.597
    8   175.554   0.11845878E-06   -78.895
    9   -83.089   0.11828854E-06   -79.183
   10  -175.533   0.11846249E-06   -79.449
   11   -38.493   0.11839544E-06   -79.516
   12   -46.057   0.11840125E-06   -79.632
   13  -173.417   0.11867129E-06   -80.171
   14    -6.232   0.11953395E-06   -80.522
   15    96.685   0.11871061E-06   -80.571
   16   103.795   0.11870906E-06   -80.706
   17   128.978   0.11897826E-06   -81.133
   18    28.359   0.11951549E-06   -82.298
   19   -89.767   0.11959661E-06   -82.355
   20   144.784   0.11896876E-06   -82.434
   21    10.694   0.11952520E-06   -82.468
   22   124.956   0.12031917E-06   -82.670
   23  -156.917   0.11927214E-06   -82.714
   24  -148.154   0.11926514E-06   -82.888
   25  -163.036   0.11962246E-06   -83.005
    36     25
    1  -117.315   0.12148573E-06   -76.874
    2   -68.016   0.12158924E-06   -76.923
    3  -153.732   0.12144147E-06   -77.623
    4   -80.033   0.12160189E-06   -77.929
    5   -71.627   0.12202339E-06   -78.042
    6  -164.632   0.12144761E-06   -78.282
    7  -121.654   0.12177870E-06   -78.524
    8    -5.094   0.12174500E-06   -79.108
    9    84.402   0.12158010E-06   -79.246
   10   134.715   0.12168245E-06   -79.579
   11  -140.439   0.12278048E-06   -79.633
   12     0.154   0.12175163E-06   -79.668
   13   -12.367   0.12175640E-06   -79.840
   14    -2.117   0.12195542E-06   -80.092
   15     4.119   0.12195896E-06   -80.389
   16   -89.418   0.12200144E-06   -80.614
   17   -75.645   0.12199037E-06   -80.691
   18   -75.243   0.12198991E-06   -80.780
   19  -139.646   0.12278714E-06   -80.872
   20   -43.094   0.12224972E-06   -81.023
   21   -23.557   0.12224103E-06   -82.379
   22   121.735   0.12285327E-06   -82.444
   23  -141.186   0.12278410E-06   -82.510
   24  -126.741   0.12278586E-06   -82.533
   25   104.348   0.12287558E-06   -82.723
    37     25
    1    43.920   0.12478199E-06   -77.119
    2    92.500   0.12488118E-06   -77.468
    3   111.062   0.12529827E-06   -78.064
    4    47.184   0.12506428E-06   -78.660
    5  -111.020   0.12487394E-06   -79.242
    6   161.489   0.12504137E-06   -79.322
    7   -55.737   0.12497235E-06   -79.574
    8    70.340   0.12603729E-06   -79.814
    9   164.376   0.12504469E-06   -80.053
   10  -175.656   0.12523601E-06   -80.295
   11    98.091   0.12527707E-06   -80.609
   12   104.011   0.12527224E-06   -80.686
   13    99.834   0.12527542E-06   -80.774
   14    82.497   0.12603083E-06   -80.825
   15   154.688   0.12551706E-06   -81.101
   16   149.406   0.12552552E-06   -81.235
   17   -32.783   0.12611454E-06   -82.474
   18    77.467   0.12603911E-06   -82.579
   19   158.420   0.12552518E-06   -82.592
   20    65.575   0.12604858E-06   -82.710
   21   -82.998   0.12613073E-06   -83.194
   22   -54.505   0.12612898E-06   -83.874
   23   -46.870   0.12611120E-06   -84.570
   24   -13.630   0.12682308E-06   -85.387
   25   179.765   0.12691402E-06   -85.743
    38     25
    1  -157.532   0.12808026E-06   -77.301
    2   -98.761   0.12817583E-06   -77.672
    3   -77.159   0.12858604E-06   -78.246
    4  -141.962   0.12835726E-06   -78.863
    5    51.399   0.12817360E-06   -79.451
    6   110.774   0.12826877E-06   -79.783
    7   -87.047   0.12930505E-06   -80.013
    8    -4.025   0.12852837E-06   -80.504
    9   -84.747   0.12856503E-06   -80.814
   10   -82.960   0.12930070E-06   -80.891
   11   -82.765   0.12856333E-06   -80.894
   12   -31.931   0.12880830E-06   -81.146
   13   -24.798   0.12880237E-06   -81.309
   14   170.194   0.12938203E-06   -82.659
   15   -87.062   0.12931254E-06   -82.780
   16   141.311   0.12940176E-06   -83.934
   17   140.503   0.12939107E-06   -84.773
   18  -149.605   0.13007391E-06   -85.388
   19  -155.403   0.13007852E-06   -85.397
   20    39.823   0.13016795E-06   -85.921
   21  -160.285   0.13008304E-06   -87.346
   22    95.527   0.13113562E-06   -88.484
   23  -105.391   0.13103501E-06   -88.935
   24    64.620   0.13016998E-06   -89.512
   25    78.146   0.13088516E-06   -89.704
